# Temperature = 300.680 K. FWHM = 1.00000 nm
# Wavelength (nm). unconv. spectr.. convolv. spectr.
1515.00   2.5690E+000   1.3215E-001
1515.05   0.0000E+000   1.3050E-001
1515.10   0.0000E+000   1.2730E-001
1515.15   0.0000E+000   1.2265E-001
1515.20   0.0000E+000   1.1669E-001
1515.25   0.0000E+000   1.0962E-001
1515.30   0.0000E+000   1.0165E-001
1515.35   0.0000E+000   9.3042E-002
1515.40   0.0000E+000   8.4052E-002
1515.45   0.0000E+000   7.4932E-002
1515.50   0.0000E+000   6.5919E-002
1515.55   0.0000E+000   5.7219E-002
1515.60   0.0000E+000   4.9003E-002
1515.65   0.0000E+000   4.1404E-002
1515.70   0.0000E+000   3.4514E-002
1515.75   0.0000E+000   2.8382E-002
1515.80   0.0000E+000   2.3024E-002
1515.85   0.0000E+000   1.8425E-002
1515.90   0.0000E+000   1.4546E-002
1515.95   0.0000E+000   1.1329E-002
1516.00   0.0000E+000   8.7054E-003
1516.05   0.0000E+000   6.6005E-003
1516.10   0.0000E+000   4.9391E-003
1516.15   0.0000E+000   3.6488E-003
1516.20   0.0000E+000   2.6626E-003
1516.25   0.0000E+000   1.9208E-003
1516.30   0.0000E+000   1.3715E-003
1516.35   0.0000E+000   9.7106E-004
1516.40   0.0000E+000   6.8376E-004
1516.45   0.0000E+000   4.8079E-004
1516.50   0.0000E+000   3.3959E-004
1516.55   0.0000E+000   2.4287E-004
1516.60   1.0834E-003   1.7768E-004
1516.65   0.0000E+000   1.3457E-004
1516.70   0.0000E+000   1.0686E-004
1516.75   0.0000E+000   9.0009E-005
1516.80   0.0000E+000   8.1202E-005
1516.85   0.0000E+000   7.8939E-005
1516.90   0.0000E+000   8.2819E-005
1516.95   0.0000E+000   9.3391E-005
1517.00   0.0000E+000   1.1208E-004
1517.05   0.0000E+000   1.4122E-004
1517.10   0.0000E+000   1.8410E-004
1517.15   0.0000E+000   2.4512E-004
1517.20   0.0000E+000   3.2999E-004
1517.25   0.0000E+000   4.4602E-004
1517.30   0.0000E+000   6.0248E-004
1517.35   0.0000E+000   8.1115E-004
1517.40   0.0000E+000   1.0870E-003
1517.45   0.0000E+000   1.4492E-003
1517.50   0.0000E+000   1.9224E-003
1517.55   0.0000E+000   2.5388E-003
1517.60   0.0000E+000   3.3406E-003
1517.65   0.0000E+000   4.3836E-003
1517.70   0.0000E+000   5.7414E-003
1517.75   0.0000E+000   7.5116E-003
1517.80   0.0000E+000   9.8224E-003
1517.85   0.0000E+000   1.2842E-002
1517.90   0.0000E+000   1.6786E-002
1517.95   0.0000E+000   2.1930E-002
1518.00   0.0000E+000   2.8621E-002
1518.05   0.0000E+000   3.7282E-002
1518.10   0.0000E+000   4.8424E-002
1518.15   0.0000E+000   6.2647E-002
1518.20   0.0000E+000   8.0637E-002
1518.25   0.0000E+000   1.0315E-001
1518.30   1.9558E-001   1.3101E-001
1518.35   0.0000E+000   1.6504E-001
1518.40   0.0000E+000   2.0606E-001
1518.45   0.0000E+000   2.5477E-001
1518.50   0.0000E+000   3.1175E-001
1518.55   0.0000E+000   3.7733E-001
1518.60   0.0000E+000   4.5155E-001
1518.65   0.0000E+000   5.3404E-001
1518.70   0.0000E+000   6.2402E-001
1518.75   0.0000E+000   7.2020E-001
1518.80   8.0398E-001   8.2080E-001
1518.85   0.0000E+000   9.2357E-001
1518.90   0.0000E+000   1.0258E+000
1518.95   0.0000E+000   1.1246E+000
1519.00   0.0000E+000   1.2168E+000
1519.05   0.0000E+000   1.2991E+000
1519.10   0.0000E+000   1.3686E+000
1519.15   0.0000E+000   1.4226E+000
1519.20   0.0000E+000   1.4588E+000
1519.25   3.0969E+001   1.4759E+000
1519.30   0.0000E+000   1.4730E+000
1519.35   0.0000E+000   1.4502E+000
1519.40   0.0000E+000   1.4085E+000
1519.45   0.0000E+000   1.3493E+000
1519.50   0.0000E+000   1.2750E+000
1519.55   0.0000E+000   1.1884E+000
1519.60   0.0000E+000   1.0926E+000
1519.65   0.0000E+000   9.9079E-001
1519.70   0.0000E+000   8.8616E-001
1519.75   0.0000E+000   7.8174E-001
1519.80   0.0000E+000   6.8018E-001
1519.85   0.0000E+000   5.8370E-001
1519.90   0.0000E+000   4.9404E-001
1519.95   0.0000E+000   4.1241E-001
1520.00   0.0000E+000   3.3955E-001
1520.05   0.0000E+000   2.7572E-001
1520.10   0.0000E+000   2.2082E-001
1520.15   0.0000E+000   1.7442E-001
1520.20   0.0000E+000   1.3587E-001
1520.25   0.0000E+000   1.0439E-001
1520.30   0.0000E+000   7.9101E-002
1520.35   0.0000E+000   5.9114E-002
1520.40   0.0000E+000   4.3570E-002
1520.45   0.0000E+000   3.1671E-002
1520.50   0.0000E+000   2.2706E-002
1520.55   0.0000E+000   1.6054E-002
1520.60   0.0000E+000   1.1195E-002
1520.65   0.0000E+000   7.6990E-003
1520.70   0.0000E+000   5.2219E-003
1520.75   0.0000E+000   3.4931E-003
1520.80   0.0000E+000   2.3045E-003
1520.85   0.0000E+000   1.4995E-003
1520.90   0.0000E+000   9.6225E-004
1520.95   0.0000E+000   6.0908E-004
1521.00   0.0000E+000   3.8034E-004
1521.05   0.0000E+000   2.3441E-004
1521.10   0.0000E+000   1.4279E-004
1521.15   0.0000E+000   8.6268E-005
1521.20   0.0000E+000   5.2167E-005
1521.25   0.0000E+000   3.2298E-005
1521.30   0.0000E+000   2.1509E-005
1521.35   0.0000E+000   1.6686E-005
1521.40   0.0000E+000   1.6083E-005
1521.45   0.0000E+000   1.8883E-005
1521.50   0.0000E+000   2.4922E-005
1521.55   0.0000E+000   3.4525E-005
1521.60   0.0000E+000   4.8424E-005
1521.65   0.0000E+000   6.7712E-005
1521.70   0.0000E+000   9.3832E-005
1521.75   0.0000E+000   1.2858E-004
1521.80   0.0000E+000   1.7413E-004
1521.85   0.0000E+000   2.3298E-004
1521.90   0.0000E+000   3.0804E-004
1521.95   0.0000E+000   4.0250E-004
1522.00   0.0000E+000   5.1989E-004
1522.05   0.0000E+000   6.6395E-004
1522.10   0.0000E+000   8.3861E-004
1522.15   0.0000E+000   1.0478E-003
1522.20   0.0000E+000   1.2956E-003
1522.25   0.0000E+000   1.5857E-003
1522.30   0.0000E+000   1.9217E-003
1522.35   0.0000E+000   2.3069E-003
1522.40   0.0000E+000   2.7440E-003
1522.45   0.0000E+000   3.2359E-003
1522.50   0.0000E+000   3.7848E-003
1522.55   0.0000E+000   4.3939E-003
1522.60   0.0000E+000   5.0672E-003
1522.65   0.0000E+000   5.8114E-003
1522.70   0.0000E+000   6.6380E-003
1522.75   0.0000E+000   7.5662E-003
1522.80   6.1756E-002   8.6281E-003
1522.85   0.0000E+000   9.8748E-003
1522.90   0.0000E+000   1.1385E-002
1522.95   0.0000E+000   1.3279E-002
1523.00   0.0000E+000   1.5727E-002
1523.05   0.0000E+000   1.8978E-002
1523.10   0.0000E+000   2.3371E-002
1523.15   0.0000E+000   2.9366E-002
1523.20   0.0000E+000   3.7568E-002
1523.25   0.0000E+000   4.8754E-002
1523.30   2.2230E-001   6.3899E-002
1523.35   0.0000E+000   8.4195E-002
1523.40   0.0000E+000   1.1106E-001
1523.45   0.0000E+000   1.4612E-001
1523.50   0.0000E+000   1.9122E-001
1523.55   0.0000E+000   2.4833E-001
1523.60   0.0000E+000   3.1949E-001
1523.65   0.0000E+000   4.0670E-001
1523.70   0.0000E+000   5.1178E-001
1523.75   0.0000E+000   6.3621E-001
1523.80   0.0000E+000   7.8094E-001
1523.85   0.0000E+000   9.4619E-001
1523.90   0.0000E+000   1.1313E+000
1523.95   0.0000E+000   1.3346E+000
1524.00   0.0000E+000   1.5533E+000
1524.05   0.0000E+000   1.7833E+000
1524.10   0.0000E+000   2.0195E+000
1524.15   0.0000E+000   2.2557E+000
1524.20   0.0000E+000   2.4850E+000
1524.25   0.0000E+000   2.7002E+000
1524.30   0.0000E+000   2.8937E+000
1524.35   0.0000E+000   3.0585E+000
1524.40   0.0000E+000   3.1882E+000
1524.45   0.0000E+000   3.2777E+000
1524.50   7.0869E+001   3.3233E+000
1524.55   0.0000E+000   3.3233E+000
1524.60   0.0000E+000   3.2775E+000
1524.65   0.0000E+000   3.1878E+000
1524.70   0.0000E+000   3.0579E+000
1524.75   0.0000E+000   2.8930E+000
1524.80   0.0000E+000   2.6992E+000
1524.85   0.0000E+000   2.4838E+000
1524.90   0.0000E+000   2.2541E+000
1524.95   0.0000E+000   2.0175E+000
1525.00   0.0000E+000   1.7808E+000
1525.05   0.0000E+000   1.5503E+000
1525.10   0.0000E+000   1.3310E+000
1525.15   0.0000E+000   1.1270E+000
1525.20   0.0000E+000   9.4117E-001
1525.25   0.0000E+000   7.7514E-001
1525.30   0.0000E+000   6.2961E-001
1525.35   0.0000E+000   5.0436E-001
1525.40   0.0000E+000   3.9847E-001
1525.45   0.0000E+000   3.1047E-001
1525.50   0.0000E+000   2.3858E-001
1525.55   0.0000E+000   1.8081E-001
1525.60   0.0000E+000   1.3514E-001
1525.65   0.0000E+000   9.9617E-002
1525.70   0.0000E+000   7.2420E-002
1525.75   0.0000E+000   5.1924E-002
1525.80   0.0000E+000   3.6715E-002
1525.85   0.0000E+000   2.5604E-002
1525.90   0.0000E+000   1.7610E-002
1525.95   0.0000E+000   1.1945E-002
1526.00   0.0000E+000   7.9907E-003
1526.05   0.0000E+000   5.2719E-003
1526.10   0.0000E+000   3.4303E-003
1526.15   0.0000E+000   2.2013E-003
1526.20   0.0000E+000   1.3932E-003
1526.25   0.0000E+000   8.6966E-004
1526.30   0.0000E+000   5.3547E-004
1526.35   0.0000E+000   3.2529E-004
1526.40   0.0000E+000   1.9509E-004
1526.45   0.0000E+000   1.1572E-004
1526.50   0.0000E+000   6.8185E-005
1526.55   0.0000E+000   4.0372E-005
1526.60   0.0000E+000   2.4685E-005
1526.65   0.0000E+000   1.6482E-005
1526.70   0.0000E+000   1.3018E-005
1526.75   0.0000E+000   1.2760E-005
1526.80   0.0000E+000   1.4946E-005
1526.85   0.0000E+000   1.9320E-005
1526.90   0.0000E+000   2.5962E-005
1526.95   0.0000E+000   3.5205E-005
1527.00   0.0000E+000   4.7582E-005
1527.05   0.0000E+000   6.3818E-005
1527.10   0.0000E+000   8.4840E-005
1527.15   0.0000E+000   1.1183E-004
1527.20   0.0000E+000   1.4629E-004
1527.25   0.0000E+000   1.9024E-004
1527.30   0.0000E+000   2.4639E-004
1527.35   0.0000E+000   3.1861E-004
1527.40   0.0000E+000   4.1246E-004
1527.45   0.0000E+000   5.3618E-004
1527.50   0.0000E+000   7.0202E-004
1527.55   0.0000E+000   9.2824E-004
1527.60   0.0000E+000   1.2419E-003
1527.65   0.0000E+000   1.6826E-003
1527.70   0.0000E+000   2.3080E-003
1527.75   0.0000E+000   3.2000E-003
1527.80   0.0000E+000   4.4739E-003
1527.85   0.0000E+000   6.2887E-003
1527.90   0.0000E+000   8.8596E-003
1527.95   0.0000E+000   1.2472E-002
1528.00   1.6774E-002   1.7499E-002
1528.05   0.0000E+000   2.4415E-002
1528.10   0.0000E+000   3.3809E-002
1528.15   0.0000E+000   4.6401E-002
1528.20   0.0000E+000   6.3043E-002
1528.25   0.0000E+000   8.4719E-002
1528.30   0.0000E+000   1.1253E-001
1528.35   0.0000E+000   1.4766E-001
1528.40   0.0000E+000   1.9133E-001
1528.45   0.0000E+000   2.4475E-001
1528.50   5.4040E-002   3.0902E-001
1528.55   0.0000E+000   3.8502E-001
1528.60   0.0000E+000   4.7332E-001
1528.65   0.0000E+000   5.7409E-001
1528.70   0.0000E+000   6.8691E-001
1528.75   0.0000E+000   8.1079E-001
1528.80   0.0000E+000   9.4401E-001
1528.85   0.0000E+000   1.0842E+000
1528.90   0.0000E+000   1.2282E+000
1528.95   0.0000E+000   1.3723E+000
1529.00   0.0000E+000   1.5123E+000
1529.05   0.0000E+000   1.6439E+000
1529.10   0.0000E+000   1.7625E+000
1529.15   0.0000E+000   1.8637E+000
1529.20   0.0000E+000   1.9438E+000
1529.25   2.2986E-001   1.9996E+000
1529.30   4.2610E+001   2.0288E+000
1529.35   0.0000E+000   2.0304E+000
1529.40   0.0000E+000   2.0041E+000
1529.45   0.0000E+000   1.9511E+000
1529.50   0.0000E+000   1.8736E+000
1529.55   0.0000E+000   1.7746E+000
1529.60   5.5093E-001   1.6579E+000
1529.65   0.0000E+000   1.5278E+000
1529.70   0.0000E+000   1.3888E+000
1529.75   0.0000E+000   1.2453E+000
1529.80   0.0000E+000   1.1015E+000
1529.85   0.0000E+000   9.6121E-001
1529.90   0.0000E+000   8.2748E-001
1529.95   0.0000E+000   7.0283E-001
1530.00   0.0000E+000   5.8901E-001
1530.05   0.0000E+000   4.8712E-001
1530.10   0.0000E+000   3.9760E-001
1530.15   0.0000E+000   3.2036E-001
1530.20   0.0000E+000   2.5489E-001
1530.25   7.9871E-002   2.0034E-001
1530.30   0.0000E+000   1.5564E-001
1530.35   0.0000E+000   1.1965E-001
1530.40   0.0000E+000   9.1153E-002
1530.45   0.0000E+000   6.8995E-002
1530.50   0.0000E+000   5.2103E-002
1530.55   0.0000E+000   3.9515E-002
1530.60   0.0000E+000   3.0403E-002
1530.65   0.0000E+000   2.4070E-002
1530.70   0.0000E+000   1.9948E-002
1530.75   0.0000E+000   1.7580E-002
1530.80   0.0000E+000   1.6608E-002
1530.85   0.0000E+000   1.6751E-002
1530.90   0.0000E+000   1.7791E-002
1530.95   0.0000E+000   1.9551E-002
1531.00   0.0000E+000   2.1885E-002
1531.05   0.0000E+000   2.4663E-002
1531.10   0.0000E+000   2.7760E-002
1531.15   0.0000E+000   3.1057E-002
1531.20   0.0000E+000   3.4430E-002
1531.25   0.0000E+000   3.7753E-002
1531.30   0.0000E+000   4.0902E-002
1531.35   0.0000E+000   4.3755E-002
1531.40   0.0000E+000   4.6198E-002
1531.45   0.0000E+000   4.8131E-002
1531.50   0.0000E+000   4.9476E-002
1531.55   1.0666E+000   5.0175E-002
1531.60   0.0000E+000   5.0202E-002
1531.65   0.0000E+000   4.9560E-002
1531.70   0.0000E+000   4.8281E-002
1531.75   0.0000E+000   4.6429E-002
1531.80   0.0000E+000   4.4096E-002
1531.85   0.0000E+000   4.1400E-002
1531.90   0.0000E+000   3.8482E-002
1531.95   0.0000E+000   3.5507E-002
1532.00   0.0000E+000   3.2663E-002
1532.05   0.0000E+000   3.0171E-002
1532.10   0.0000E+000   2.8286E-002
1532.15   0.0000E+000   2.7319E-002
1532.20   0.0000E+000   2.7653E-002
1532.25   0.0000E+000   2.9766E-002
1532.30   0.0000E+000   3.4264E-002
1532.35   0.0000E+000   4.1914E-002
1532.40   0.0000E+000   5.3674E-002
1532.45   2.3596E-002   7.0733E-002
1532.50   0.0000E+000   9.4526E-002
1532.55   0.0000E+000   1.2676E-001
1532.60   0.0000E+000   1.6939E-001
1532.65   0.0000E+000   2.2462E-001
1532.70   0.0000E+000   2.9483E-001
1532.75   0.0000E+000   3.8245E-001
1532.80   0.0000E+000   4.8991E-001
1532.85   0.0000E+000   6.1937E-001
1532.90   0.0000E+000   7.7261E-001
1532.95   0.0000E+000   9.5075E-001
1533.00   0.0000E+000   1.1541E+000
1533.05   0.0000E+000   1.3817E+000
1533.10   0.0000E+000   1.6315E+000
1533.15   0.0000E+000   1.9001E+000
1533.20   0.0000E+000   2.1826E+000
1533.25   0.0000E+000   2.4725E+000
1533.30   0.0000E+000   2.7624E+000
1533.35   0.0000E+000   3.0439E+000
1533.40   0.0000E+000   3.3078E+000
1533.45   0.0000E+000   3.5452E+000
1533.50   0.0000E+000   3.7473E+000
1533.55   0.0000E+000   3.9064E+000
1533.60   0.0000E+000   4.0162E+000
1533.65   8.6846E+001   4.0723E+000
1533.70   0.0000E+000   4.0723E+000
1533.75   0.0000E+000   4.0162E+000
1533.80   0.0000E+000   3.9064E+000
1533.85   0.0000E+000   3.7473E+000
1533.90   0.0000E+000   3.5451E+000
1533.95   0.0000E+000   3.3077E+000
1534.00   0.0000E+000   3.0437E+000
1534.05   0.0000E+000   2.7622E+000
1534.10   0.0000E+000   2.4723E+000
1534.15   0.0000E+000   2.1823E+000
1534.20   0.0000E+000   1.8998E+000
1534.25   0.0000E+000   1.6311E+000
1534.30   0.0000E+000   1.3811E+000
1534.35   0.0000E+000   1.1534E+000
1534.40   0.0000E+000   9.4989E-001
1534.45   0.0000E+000   7.7155E-001
1534.50   0.0000E+000   6.1807E-001
1534.55   0.0000E+000   4.8830E-001
1534.60   0.0000E+000   3.8047E-001
1534.65   0.0000E+000   2.9237E-001
1534.70   0.0000E+000   2.2158E-001
1534.75   0.0000E+000   1.6562E-001
1534.80   0.0000E+000   1.2209E-001
1534.85   0.0000E+000   8.8773E-002
1534.90   0.0000E+000   6.3663E-002
1534.95   0.0000E+000   4.5035E-002
1535.00   0.0000E+000   3.1430E-002
1535.05   0.0000E+000   2.1646E-002
1535.10   0.0000E+000   1.4717E-002
1535.15   0.0000E+000   9.8875E-003
1535.20   0.0000E+000   6.5731E-003
1535.25   0.0000E+000   4.3348E-003
1535.30   0.0000E+000   2.8483E-003
1535.35   0.0000E+000   1.8780E-003
1535.40   0.0000E+000   1.2564E-003
1535.45   0.0000E+000   8.6622E-004
1535.50   0.0000E+000   6.2674E-004
1535.55   0.0000E+000   4.8335E-004
1535.60   0.0000E+000   3.9968E-004
1535.65   0.0000E+000   3.5188E-004
1535.70   0.0000E+000   3.2457E-004
1535.75   6.0001E-003   3.0802E-004
1535.80   0.0000E+000   2.9625E-004
1535.85   0.0000E+000   2.8568E-004
1535.90   0.0000E+000   2.7435E-004
1535.95   0.0000E+000   2.6128E-004
1536.00   0.0000E+000   2.4619E-004
1536.05   0.0000E+000   2.2918E-004
1536.10   0.0000E+000   2.1062E-004
1536.15   0.0000E+000   1.9101E-004
1536.20   0.0000E+000   1.7089E-004
1536.25   0.0000E+000   1.5081E-004
1536.30   0.0000E+000   1.3127E-004
1536.35   0.0000E+000   1.1270E-004
1536.40   0.0000E+000   9.5424E-005
1536.45   0.0000E+000   7.9686E-005
1536.50   0.0000E+000   6.5628E-005
1536.55   0.0000E+000   5.3306E-005
1536.60   0.0000E+000   4.2701E-005
1536.65   0.0000E+000   3.3736E-005
1536.70   0.0000E+000   2.6286E-005
1536.75   0.0000E+000   2.0199E-005
1536.80   0.0000E+000   1.5308E-005
1536.85   0.0000E+000   1.1442E-005
1536.90   0.0000E+000   8.4339E-006
1536.95   0.0000E+000   6.1314E-006
1537.00   0.0000E+000   4.3960E-006
1537.05   0.0000E+000   3.1085E-006
1537.10   0.0000E+000   2.1678E-006
1537.15   0.0000E+000   1.4910E-006
1537.20   0.0000E+000   1.0114E-006
1537.25   0.0000E+000   6.7673E-007
1537.30   0.0000E+000   4.4679E-007
1537.35   0.0000E+000   2.9140E-007
1537.40   0.0000E+000   1.8847E-007
1537.45   0.0000E+000   1.2239E-007
1537.50   0.0000E+000   8.2879E-008
1537.55   0.0000E+000   6.4359E-008
1537.60   0.0000E+000   6.6127E-008
1537.65   0.0000E+000   9.3702E-008
1537.70   0.0000E+000   1.6206E-007
1537.75   0.0000E+000   3.0200E-007
1537.80   0.0000E+000   5.7178E-007
1537.85   0.0000E+000   1.0776E-006
1537.90   0.0000E+000   2.0084E-006
1537.95   0.0000E+000   3.6949E-006
1538.00   0.0000E+000   6.7056E-006
1538.05   0.0000E+000   1.2003E-005
1538.10   0.0000E+000   2.1190E-005
1538.15   0.0000E+000   3.6894E-005
1538.20   0.0000E+000   6.3351E-005
1538.25   0.0000E+000   1.0729E-004
1538.30   0.0000E+000   1.7919E-004
1538.35   0.0000E+000   2.9515E-004
1538.40   0.0000E+000   4.7947E-004
1538.45   0.0000E+000   7.6818E-004
1538.50   0.0000E+000   1.2138E-003
1538.55   0.0000E+000   1.8915E-003
1538.60   0.0000E+000   2.9070E-003
1538.65   0.0000E+000   4.4062E-003
1538.70   0.0000E+000   6.5865E-003
1538.75   0.0000E+000   9.7103E-003
1538.80   0.0000E+000   1.4119E-002
1538.85   0.0000E+000   2.0245E-002
1538.90   0.0000E+000   2.8631E-002
1538.95   0.0000E+000   3.9933E-002
1539.00   0.0000E+000   5.4930E-002
1539.05   0.0000E+000   7.4518E-002
1539.10   0.0000E+000   9.9700E-002
1539.15   0.0000E+000   1.3156E-001
1539.20   0.0000E+000   1.7120E-001
1539.25   0.0000E+000   2.1972E-001
1539.30   0.0000E+000   2.7811E-001
1539.35   0.0000E+000   3.4718E-001
1539.40   0.0000E+000   4.2742E-001
1539.45   0.0000E+000   5.1898E-001
1539.50   0.0000E+000   6.2146E-001
1539.55   0.0000E+000   7.3394E-001
1539.60   0.0000E+000   8.5485E-001
1539.65   0.0000E+000   9.8196E-001
1539.70   0.0000E+000   1.1124E+000
1539.75   0.0000E+000   1.2429E+000
1539.80   0.0000E+000   1.3696E+000
1539.85   0.0000E+000   1.4884E+000
1539.90   0.0000E+000   1.5952E+000
1539.95   0.0000E+000   1.6862E+000
1540.00   0.0000E+000   1.7578E+000
1540.05   0.0000E+000   1.8072E+000
1540.10   3.9078E+001   1.8324E+000
1540.15   0.0000E+000   1.8324E+000
1540.20   0.0000E+000   1.8072E+000
1540.25   0.0000E+000   1.7578E+000
1540.30   0.0000E+000   1.6862E+000
1540.35   0.0000E+000   1.5952E+000
1540.40   0.0000E+000   1.4884E+000
1540.45   0.0000E+000   1.3696E+000
1540.50   0.0000E+000   1.2429E+000
1540.55   0.0000E+000   1.1124E+000
1540.60   0.0000E+000   9.8196E-001
1540.65   0.0000E+000   8.5485E-001
1540.70   0.0000E+000   7.3394E-001
1540.75   0.0000E+000   6.2146E-001
1540.80   0.0000E+000   5.1898E-001
1540.85   0.0000E+000   4.2742E-001
1540.90   0.0000E+000   3.4718E-001
1540.95   0.0000E+000   2.7811E-001
1541.00   0.0000E+000   2.1972E-001
1541.05   0.0000E+000   1.7120E-001
1541.10   0.0000E+000   1.3156E-001
1541.15   0.0000E+000   9.9700E-002
1541.20   0.0000E+000   7.4518E-002
1541.25   0.0000E+000   5.4930E-002
1541.30   0.0000E+000   3.9934E-002
1541.35   0.0000E+000   2.8632E-002
1541.40   0.0000E+000   2.0247E-002
1541.45   0.0000E+000   1.4122E-002
1541.50   0.0000E+000   9.7171E-003
1541.55   0.0000E+000   6.5989E-003
1541.60   0.0000E+000   4.4283E-003
1541.65   0.0000E+000   2.9460E-003
1541.70   0.0000E+000   1.9594E-003
1541.75   0.0000E+000   1.3304E-003
1541.80   0.0000E+000   9.6564E-004
1541.85   0.0000E+000   8.0927E-004
1541.90   0.0000E+000   8.3838E-004
1541.95   0.0000E+000   1.0617E-003
1542.00   0.0000E+000   1.5211E-003
1542.05   0.0000E+000   2.2974E-003
1542.10   0.0000E+000   3.5182E-003
1542.15   0.0000E+000   5.3716E-003
1542.20   0.0000E+000   8.1217E-003
1542.25   0.0000E+000   1.2129E-002
1542.30   0.0000E+000   1.7876E-002
1542.35   0.0000E+000   2.5988E-002
1542.40   0.0000E+000   3.7263E-002
1542.45   0.0000E+000   5.2697E-002
1542.50   0.0000E+000   7.3499E-002
1542.55   0.0000E+000   1.0110E-001
1542.60   0.0000E+000   1.3715E-001
1542.65   0.0000E+000   1.8350E-001
1542.70   0.0000E+000   2.4213E-001
1542.75   0.0000E+000   3.1509E-001
1542.80   0.0000E+000   4.0440E-001
1542.85   0.0000E+000   5.1187E-001
1542.90   0.0000E+000   6.3899E-001
1542.95   0.0000E+000   7.8668E-001
1543.00   0.0000E+000   9.5519E-001
1543.05   0.0000E+000   1.1438E+000
1543.10   0.0000E+000   1.3508E+000
1543.15   0.0000E+000   1.5734E+000
1543.20   0.0000E+000   1.8073E+000
1543.25   0.0000E+000   2.0475E+000
1543.30   0.0000E+000   2.2876E+000
1543.35   0.0000E+000   2.5208E+000
1543.40   0.0000E+000   2.7394E+000
1543.45   0.0000E+000   2.9360E+000
1543.50   0.0000E+000   3.1034E+000
1543.55   0.0000E+000   3.2352E+000
1543.60   0.0000E+000   3.3262E+000
1543.65   7.1925E+001   3.3726E+000
1543.70   0.0000E+000   3.3726E+000
1543.75   0.0000E+000   3.3262E+000
1543.80   0.0000E+000   3.2352E+000
1543.85   0.0000E+000   3.1034E+000
1543.90   0.0000E+000   2.9360E+000
1543.95   0.0000E+000   2.7394E+000
1544.00   0.0000E+000   2.5208E+000
1544.05   0.0000E+000   2.2876E+000
1544.10   0.0000E+000   2.0475E+000
1544.15   0.0000E+000   1.8073E+000
1544.20   0.0000E+000   1.5734E+000
1544.25   0.0000E+000   1.3508E+000
1544.30   0.0000E+000   1.1438E+000
1544.35   0.0000E+000   9.5519E-001
1544.40   0.0000E+000   7.8668E-001
1544.45   0.0000E+000   6.3899E-001
1544.50   0.0000E+000   5.1187E-001
1544.55   0.0000E+000   4.0440E-001
1544.60   0.0000E+000   3.1509E-001
1544.65   0.0000E+000   2.4213E-001
1544.70   0.0000E+000   1.8350E-001
1544.75   0.0000E+000   1.3715E-001
1544.80   0.0000E+000   1.0110E-001
1544.85   0.0000E+000   7.3498E-002
1544.90   0.0000E+000   5.2697E-002
1544.95   0.0000E+000   3.7262E-002
1545.00   0.0000E+000   2.5986E-002
1545.05   0.0000E+000   1.7872E-002
1545.10   0.0000E+000   1.2123E-002
1545.15   0.0000E+000   8.1097E-003
1545.20   0.0000E+000   5.3504E-003
1545.25   0.0000E+000   3.4813E-003
1545.30   0.0000E+000   2.2340E-003
1545.35   0.0000E+000   1.4139E-003
1545.40   0.0000E+000   8.8248E-004
1545.45   0.0000E+000   5.4323E-004
1545.50   0.0000E+000   3.2979E-004
1545.55   0.0000E+000   1.9746E-004
1545.60   0.0000E+000   1.1660E-004
1545.65   0.0000E+000   6.7904E-005
1545.70   0.0000E+000   3.9001E-005
1545.75   0.0000E+000   2.2092E-005
1545.80   0.0000E+000   1.2341E-005
1545.85   0.0000E+000   6.7995E-006
1545.90   0.0000E+000   3.6946E-006
1545.95   0.0000E+000   1.9799E-006
1546.00   0.0000E+000   1.0464E-006
1546.05   0.0000E+000   5.4541E-007
1546.10   0.0000E+000   2.8037E-007
1546.15   0.0000E+000   1.4214E-007
1546.20   0.0000E+000   7.1072E-008
1546.25   0.0000E+000   3.5047E-008
1546.30   0.0000E+000   1.7044E-008
1546.35   0.0000E+000   8.1755E-009
1546.40   0.0000E+000   3.8682E-009
1546.45   0.0000E+000   1.8069E-009
1546.50   0.0000E+000   8.3643E-010
1546.55   0.0000E+000   3.9078E-010
1546.60   0.0000E+000   1.9930E-010
1546.65   0.0000E+000   1.4031E-010
1546.70   0.0000E+000   1.7174E-010
1546.75   0.0000E+000   3.0445E-010
1546.80   0.0000E+000   6.0332E-010
1546.85   0.0000E+000   1.2140E-009
1546.90   0.0000E+000   2.4241E-009
1546.95   0.0000E+000   4.7799E-009
1547.00   0.0000E+000   9.2978E-009
1547.05   0.0000E+000   1.7838E-008
1547.10   0.0000E+000   3.3751E-008
1547.15   0.0000E+000   6.2982E-008
1547.20   0.0000E+000   1.1591E-007
1547.25   0.0000E+000   2.1038E-007
1547.30   0.0000E+000   3.7659E-007
1547.35   0.0000E+000   6.6484E-007
1547.40   0.0000E+000   1.1576E-006
1547.45   0.0000E+000   1.9877E-006
1547.50   0.0000E+000   3.3661E-006
1547.55   0.0000E+000   5.6220E-006
1547.60   0.0000E+000   9.2604E-006
1547.65   0.0000E+000   1.5044E-005
1547.70   0.0000E+000   2.4102E-005
1547.75   0.0000E+000   3.8083E-005
1547.80   0.0000E+000   5.9346E-005
1547.85   0.0000E+000   9.1207E-005
1547.90   0.0000E+000   1.3824E-004
1547.95   0.0000E+000   2.0665E-004
1548.00   0.0000E+000   3.0466E-004
